wavelength (microns),Re_eps,Im_eps
2.0,2.15,20.7
1.907,1.99,19.8
1.771,1.77,18.3
1.653,1.59,17.1
1.55,1.44,16.0
1.5,1.38,15.4
1.459,1.33,14.9
1.378,1.26,14.0
1.305,1.23,13.2
1.24,1.21,12.5
1.2,1.21,12.0
1.181,1.21,11.8
1.127,1.2,11.2
1.078,1.21,10.6
1.033,1.26,10.0
1.0,1.35,9.58
0.9919,1.37,9.49
0.9537,1.58,8.95
0.95,1.49,8.88
0.925,1.77,8.49
0.9184,1.86,8.44
0.9,2.06,8.3
0.8856,2.24,8.21
0.875,2.38,8.18
0.8551,2.58,8.21
0.85,2.61,8.22
0.8266,2.74,8.31
0.825,2.75,8.31
0.7999,2.8,8.45
0.7749,2.63,8.6
0.7514,2.41,8.62
0.75,2.4,8.62
0.7293,2.14,8.57
0.7085,1.91,8.39
0.7,1.83,8.31
0.6888,1.74,8.21
0.6702,1.6,8.01
0.6526,1.49,7.82
0.65,1.47,7.79
0.6358,1.39,7.65
0.6199,1.3,7.48
0.6048,1.22,7.31
0.6,1.2,7.26
0.5904,1.15,7.15
0.5767,1.08,7.0
0.5636,1.02,6.85
0.551,0.963,6.7
0.55,0.958,6.69
0.5391,0.912,6.55
0.5276,0.867,6.42
0.5166,0.826,6.28
0.5061,0.789,6.15
0.5,0.769,6.08
0.4959,0.755,6.03
0.4769,0.695,5.8
0.4592,0.644,5.58
0.45,0.618,5.47
0.4428,0.598,5.38
0.4275,0.558,5.2
0.4133,0.523,5.02
0.4,0.49,4.86
0.3875,0.46,4.71
0.3757,0.432,4.56
0.3647,0.407,4.43
0.3542,0.385,4.3
0.35,0.375,4.24
0.3444,0.364,4.17
0.3351,0.344,4.06
0.3263,0.326,3.95
0.3179,0.31,3.84
0.31,0.294,3.74
0.3,0.276,3.61
0.2917,0.261,3.51
0.2755,0.233,3.3
0.261,0.209,3.11
0.248,0.19,2.94
0.2362,0.172,2.79
0.2254,0.155,2.64
0.2156,0.141,2.51
0.2066,0.13,2.39
0.1984,0.119,2.28
